scansci Spectrometer Data File
--- Measurement Setting ---
Type: Sample Spectrum
Date: Tue Nov 11 11:47:16 2025
User: (Reserved by scansci)
Serial: (Reserved by scansci)
Channel: No. 11
Integration Time: 9
Average: 12
Boxcar: 0
Electrical Dark: No-corrected
Time Normalize: (Reserved by scansci)
Dual-beam: (Reserved by scansci)
Reference Ch: (Reserved by scansci)
--- Measurement Data ---
Pixel   Wavelength   Intensity
    0        344.4      681.667
    1      344.867          683
    2      345.334      684.333
    3      345.801      684.333
    4      346.268      684.083
    5      346.735          685
    6      347.202      685.667
    7      347.669       684.25
    8      348.135      685.083
    9      348.602      686.583
   10      349.068      687.417
   11      349.535       686.75
   12      350.001        684.5
   13      350.467          685
   14      350.933       687.25
   15      351.399      687.667
   16      351.866      686.083
   17      352.331        684.5
   18      352.797      685.167
   19      353.263       686.75
   20      353.729          688
   21      354.194      687.083
   22       354.66      688.667
   23      355.126       690.75
   24      355.591      690.667
   25      356.056      688.417
   26      356.522      686.917
   27      356.987      687.917
   28      357.452      687.167
   29      357.917        685.5
   30      358.382          686
   31      358.847      686.833
   32      359.312      686.417
   33      359.776        687.5
   34      360.241       687.25
   35      360.706      686.333
   36       361.17      687.083
   37      361.634      688.333
   38      362.099      689.167
   39      362.563      687.417
   40      363.027          686
   41      363.491      686.167
   42      363.955      686.833
   43      364.419      687.083
   44      364.883      688.083
   45      365.347      689.083
   46      365.811      685.833
   47      366.274      684.167
   48      366.738      685.583
   49      367.201      684.917
   50      367.665      685.583
   51      368.128          686
   52      368.592      685.917
   53      369.055      685.667
   54      369.518          685
   55      369.981       684.75
   56      370.444      685.833
   57      370.907       685.75
   58       371.37      684.333
   59      371.832      685.333
   60      372.295      686.917
   61      372.757      686.667
   62       373.22      686.083
   63      373.682       687.75
   64      374.145      688.333
   65      374.607      688.083
   66      375.069          686
   67      375.531      685.417
   68      375.993      686.833
   69      376.455      687.583
   70      376.917      688.083
   71      377.379      689.167
   72      377.841      689.417
   73      378.302      691.333
   74      378.764       692.25
   75      379.225      690.167
   76      379.687       690.75
   77      380.148        690.5
   78      380.609      687.583
   79      381.071      688.417
   80      381.532      691.083
   81      381.993        688.5
   82      382.454      686.667
   83      382.915       688.75
   84      383.375      689.333
   85      383.836       688.25
   86      384.297        687.5
   87      384.757        687.5
   88      385.218      686.333
   89      385.678       685.25
   90      386.138       685.25
   91      386.599          684
   92      387.059      682.833
   93      387.519      683.583
   94      387.979      684.583
   95      388.439       684.75
   96      388.899      687.417
   97      389.358        689.5
   98      389.818      690.417
   99      390.278        691.5
  100      390.737        692.5
  101      391.197          691
  102      391.656          688
  103      392.115      687.083
  104      392.575      687.333
  105      393.034      687.583
  106      393.493      686.667
  107      393.952      685.667
  108      394.411      687.083
  109       394.87      688.333
  110      395.328      685.917
  111      395.787       684.75
  112      396.246      684.917
  113      396.704      686.167
  114      397.163      687.417
  115      397.621      687.833
  116      398.079      688.333
  117      398.537       688.25
  118      398.995      687.333
  119      399.454      688.667
  120      399.911        688.5
  121      400.369      686.417
  122      400.827      686.333
  123      401.285      687.667
  124      401.743      689.583
  125        402.2      686.917
  126      402.658      685.583
  127      403.115      685.667
  128      403.572      685.333
  129       404.03      685.917
  130      404.487        686.5
  131      404.944      689.167
  132      405.401      689.417
  133      405.858      686.333
  134      406.315       685.75
  135      406.771      687.083
  136      407.228       685.75
  137      407.685        682.5
  138      408.141      682.833
  139      408.598          685
  140      409.054       685.75
  141       409.51        685.5
  142      409.967      684.417
  143      410.423          684
  144      410.879      685.333
  145      411.335      687.333
  146      411.791      688.333
  147      412.246      688.583
  148      412.702       687.25
  149      413.158       686.75
  150      413.613      686.583
  151      414.069          686
  152      414.524      688.167
  153       414.98      688.333
  154      415.435      687.417
  155       415.89       687.25
  156      416.345      687.083
  157        416.8       687.75
  158      417.255       687.75
  159       417.71      686.667
  160      418.165      686.667
  161      418.619      686.833
  162      419.074       689.25
  163      419.529      690.167
  164      419.983          688
  165      420.437          688
  166      420.892      688.583
  167      421.346       687.75
  168        421.8        688.5
  169      422.254      688.667
  170      422.708       686.25
  171      423.162      685.833
  172      423.616        686.5
  173       424.07       687.75
  174      424.523          688
  175      424.977       688.25
  176       425.43       690.75
  177      425.884      692.083
  178      426.337      690.083
  179       426.79      688.667
  180      427.243      687.667
  181      427.697      688.833
  182       428.15      688.667
  183      428.602      686.583
  184      429.055        685.5
  185      429.508      687.417
  186      429.961        688.5
  187      430.413      690.167
  188      430.866       690.75
  189      431.318      691.917
  190      431.771          694
  191      432.223      692.833
  192      432.675      691.417
  193      433.127      687.583
  194      433.579       686.75
  195      434.031        688.5
  196      434.483      687.833
  197      434.935       686.75
  198      435.387      688.917
  199      435.838      690.083
  200       436.29      690.833
  201      436.741      691.833
  202      437.193      691.167
  203      437.644        689.5
  204      438.095      688.083
  205      438.546       687.25
  206      438.997      687.833
  207      439.448          688
  208      439.899          688
  209       440.35       690.25
  210      440.801      691.667
  211      441.251      691.833
  212      441.702      691.333
  213      442.152      689.667
  214      442.603      689.333
  215      443.053      688.667
  216      443.503      688.083
  217      443.954      688.083
  218      444.404      688.583
  219      444.854      688.333
  220      445.304      688.417
  221      445.753      687.917
  222      446.203      688.833
  223      446.653        690.5
  224      447.102      690.833
  225      447.552        691.5
  226      448.001      690.667
  227      448.451      689.333
  228        448.9       689.75
  229      449.349      689.083
  230      449.798       688.25
  231      450.247      687.917
  232      450.696       686.75
  233      451.145      687.167
  234      451.594       688.25
  235      452.042       687.25
  236      452.491      688.083
  237      452.939      687.083
  238      453.388      687.167
  239      453.836      688.833
  240      454.285      691.333
  241      454.733       691.75
  242      455.181      690.333
  243      455.629      689.417
  244      456.077      690.083
  245      456.525       690.25
  246      456.972       688.75
  247       457.42      687.667
  248      457.868      685.167
  249      458.315          686
  250      458.763      688.083
  251       459.21          688
  252      459.657      685.333
  253      460.104      685.833
  254      460.552      689.083
  255      460.999       689.75
  256      461.446          691
  257      461.892          692
  258      462.339      691.917
  259      462.786      691.167
  260      463.233       691.25
  261      463.679      691.833
  262      464.125       690.75
  263      464.572      689.333
  264      465.018        690.5
  265      465.464       691.25
  266       465.91      688.333
  267      466.356        688.5
  268      466.802       691.75
  269      467.248      692.417
  270      467.694      691.417
  271       468.14        693.5
  272      468.585       695.25
  273      469.031      693.917
  274      469.476      689.417
  275      469.922        687.5
  276      470.367          689
  277      470.812      690.583
  278      471.257       691.75
  279      471.702      692.833
  280      472.147      691.833
  281      472.592      690.833
  282      473.037          690
  283      473.482          690
  284      473.926      688.167
  285      474.371       685.75
  286      474.815      685.833
  287      475.259      688.083
  288      475.704      688.167
  289      476.148       688.25
  290      476.592       689.25
  291      477.036        690.5
  292       477.48      692.333
  293      477.924      692.583
  294      478.368       690.25
  295      478.811      687.833
  296      479.255      688.583
  297      479.698      689.333
  298      480.142      688.167
  299      480.585      688.167
  300      481.028      688.667
  301      481.472      688.083
  302      481.915      689.333
  303      482.358          691
  304      482.801      691.417
  305      483.244       689.75
  306      483.686      688.333
  307      484.129      690.667
  308      484.572      694.583
  309      485.014      693.083
  310      485.456      690.667
  311      485.899       689.75
  312      486.341       689.75
  313      486.783      689.917
  314      487.225      690.917
  315      487.667        692.5
  316      488.109        692.5
  317      488.551      694.333
  318      488.993       694.75
  319      489.434      693.667
  320      489.876      694.417
  321      490.318      695.333
  322      490.759        695.5
  323        491.2      694.833
  324      491.641          694
  325      492.083          695
  326      492.524          696
  327      492.965      696.833
  328      493.406      698.917
  329      493.846      700.667
  330      494.287      700.083
  331      494.728      698.167
  332      495.168      699.167
  333      495.609      699.833
  334      496.049        700.5
  335      496.489      702.083
  336       496.93        702.5
  337       497.37      704.417
  338       497.81      705.583
  339       498.25        706.5
  340       498.69      707.083
  341      499.129          709
  342      499.569      711.167
  343      500.009      713.583
  344      500.448      715.333
  345      500.888      715.917
  346      501.327       716.75
  347      501.766      716.833
  348      502.206      717.417
  349      502.645          721
  350      503.084       721.75
  351      503.523          722
  352      503.961      724.083
  353        504.4      725.833
  354      504.839          727
  355      505.277      729.833
  356      505.716        730.5
  357      506.154      731.917
  358      506.593      735.583
  359      507.031          735
  360      507.469        735.5
  361      507.907      735.667
  362      508.345      737.917
  363      508.783      741.417
  364      509.221      742.333
  365      509.659      745.083
  366      510.096      748.583
  367      510.534      749.083
  368      510.971          750
  369      511.409      752.583
  370      511.846      754.333
  371      512.283       756.25
  372       512.72      757.583
  373      513.157      760.583
  374      513.594      764.833
  375      514.031       765.25
  376      514.468      763.917
  377      514.905       766.75
  378      515.341       769.75
  379      515.778      772.167
  380      516.214      775.833
  381       516.65      778.417
  382      517.087      779.417
  383      517.523       780.25
  384      517.959      783.417
  385      518.395      785.583
  386      518.831      787.083
  387      519.267      790.333
  388      519.702      793.667
  389      520.138      797.917
  390      520.574      801.333
  391      521.009      801.917
  392      521.444      806.083
  393       521.88      808.917
  394      522.315      811.917
  395       522.75      812.833
  396      523.185      812.083
  397       523.62      813.167
  398      524.055      816.083
  399       524.49       819.75
  400      524.924      824.333
  401      525.359      827.667
  402      525.794      830.167
  403      526.228      832.667
  404      526.662      835.583
  405      527.097      838.083
  406      527.531      842.083
  407      527.965      846.333
  408      528.399        849.5
  409      528.833      852.833
  410      529.267          856
  411        529.7      859.833
  412      530.134      863.583
  413      530.568      868.583
  414      531.001      874.167
  415      531.434      876.167
  416      531.868      880.167
  417      532.301      885.417
  418      532.734      888.333
  419      533.167      894.583
  420        533.6      897.833
  421      534.033      899.583
  422      534.466      903.583
  423      534.898      907.833
  424      535.331        912.5
  425      535.763       920.75
  426      536.196      927.083
  427      536.628      930.083
  428       537.06      934.917
  429      537.493       940.25
  430      537.925      942.833
  431      538.357      943.167
  432      538.788      947.167
  433       539.22          951
  434      539.652          955
  435      540.084          962
  436      540.515      968.667
  437      540.947      974.917
  438      541.378      982.833
  439      541.809      988.667
  440       542.24        989.5
  441      542.672      992.167
  442      543.103          996
  443      543.533      999.333
  444      543.964      1004.33
  445      544.395      1008.58
  446      544.826      1011.42
  447      545.256      1016.25
  448      545.687      1022.25
  449      546.117         1026
  450      546.547      1030.67
  451      546.978      1036.25
  452      547.408      1040.83
  453      547.838      1045.33
  454      548.268      1047.17
  455      548.698      1050.25
  456      549.127      1055.42
  457      549.557      1059.25
  458      549.987      1064.58
  459      550.416      1070.83
  460      550.846      1076.42
  461      551.275      1080.92
  462      551.704      1083.25
  463      552.133      1084.75
  464      552.562       1089.5
  465      552.991      1096.83
  466       553.42      1105.42
  467      553.849      1109.92
  468      554.278      1116.58
  469      554.706      1126.17
  470      555.135      1132.33
  471      555.563      1137.25
  472      555.991      1140.83
  473       556.42      1144.33
  474      556.848      1150.17
  475      557.276      1154.67
  476      557.704      1162.25
  477      558.132      1168.42
  478       558.56      1171.83
  479      558.987      1180.08
  480      559.415      1185.33
  481      559.843      1188.58
  482       560.27      1196.17
  483      560.697      1206.08
  484      561.125      1215.75
  485      561.552      1225.17
  486      561.979      1231.17
  487      562.406      1237.17
  488      562.833      1243.17
  489       563.26      1247.42
  490      563.686      1252.83
  491      564.113      1257.17
  492       564.54      1262.17
  493      564.966      1268.42
  494      565.392      1279.58
  495      565.819         1293
  496      566.245      1302.08
  497      566.671      1309.67
  498      567.097      1318.42
  499      567.523      1325.17
  500      567.949      1334.17
  501      568.374      1345.67
  502        568.8      1353.92
  503      569.226      1364.42
  504      569.651      1371.67
  505      570.077       1380.5
  506      570.502      1392.25
  507      570.927      1396.83
  508      571.352      1401.33
  509      571.777      1411.58
  510      572.202      1419.67
  511      572.627      1429.25
  512      573.052      1443.83
  513      573.476      1454.33
  514      573.901      1460.33
  515      574.325      1467.25
  516       574.75       1474.5
  517      575.174      1481.58
  518      575.598      1491.42
  519      576.022      1503.67
  520      576.446      1512.83
  521       576.87      1518.25
  522      577.294       1528.5
  523      577.718      1539.75
  524      578.142      1549.08
  525      578.565      1559.75
  526      578.989      1573.25
  527      579.412      1591.58
  528      579.835      1605.17
  529      580.259      1615.42
  530      580.682      1626.83
  531      581.105      1637.08
  532      581.528       1645.5
  533      581.951      1649.67
  534      582.373      1657.08
  535      582.796      1670.42
  536      583.219      1682.25
  537      583.641      1697.17
  538      584.063      1716.17
  539      584.486      1735.08
  540      584.908      1750.67
  541       585.33      1760.33
  542      585.752      1764.92
  543      586.174      1772.58
  544      586.596      1783.17
  545      587.018      1799.42
  546      587.439         1813
  547      587.861      1827.25
  548      588.282      1843.75
  549      588.704         1854
  550      589.125      1867.17
  551      589.546         1879
  552      589.967         1895
  553      590.388      1914.17
  554      590.809      1930.17
  555       591.23      1947.58
  556      591.651      1969.08
  557      592.071      1986.83
  558      592.492      1995.33
  559      592.912      2008.92
  560      593.333      2025.75
  561      593.753      2038.42
  562      594.173       2044.5
  563      594.593      2054.25
  564      595.013      2072.58
  565      595.433      2088.83
  566      595.853      2102.58
  567      596.273      2108.25
  568      596.693      2114.33
  569      597.112      2130.42
  570      597.532      2143.33
  571      597.951      2149.75
  572       598.37      2161.92
  573      598.789      2165.67
  574      599.208      2171.83
  575      599.627      2188.67
  576      600.046      2203.17
  577      600.465      2218.33
  578      600.884         2226
  579      601.303      2222.17
  580      601.721         2218
  581      602.139      2225.25
  582      602.558      2233.75
  583      602.976      2241.33
  584      603.394      2259.25
  585      603.812      2276.67
  586       604.23      2283.42
  587      604.648      2289.83
  588      605.066      2298.92
  589      605.484      2307.75
  590      605.901      2317.58
  591      606.319      2329.42
