scansci Spectrometer Data File
--- Measurement Setting ---
Type: Sample Spectrum
Date: Tue Nov 11 11:49:35 2025
User: (Reserved by scansci)
Serial: (Reserved by scansci)
Channel: No. 11
Integration Time: 9
Average: 12
Boxcar: 0
Electrical Dark: No-corrected
Time Normalize: (Reserved by scansci)
Dual-beam: (Reserved by scansci)
Reference Ch: (Reserved by scansci)
--- Measurement Data ---
Pixel   Wavelength   Intensity
    0        344.4       680.75
    1      344.867      681.667
    2      345.334      682.167
    3      345.801      682.167
    4      346.268      681.917
    5      346.735      681.333
    6      347.202      682.833
    7      347.669      681.583
    8      348.135       680.25
    9      348.602      681.333
   10      349.068      681.333
   11      349.535        681.5
   12      350.001      681.667
   13      350.467      682.583
   14      350.933        683.5
   15      351.399          682
   16      351.866      682.333
   17      352.331      682.917
   18      352.797      682.667
   19      353.263      682.083
   20      353.729      682.083
   21      354.194      681.917
   22       354.66      681.417
   23      355.126      681.333
   24      355.591      682.583
   25      356.056      684.333
   26      356.522      685.667
   27      356.987      686.917
   28      357.452       687.25
   29      357.917      684.417
   30      358.382      682.167
   31      358.847      683.833
   32      359.312      684.083
   33      359.776        685.5
   34      360.241      684.667
   35      360.706        681.5
   36       361.17          681
   37      361.634      680.917
   38      362.099          683
   39      362.563       684.25
   40      363.027      685.167
   41      363.491      685.167
   42      363.955      684.833
   43      364.419      685.667
   44      364.883       684.75
   45      365.347      683.333
   46      365.811      681.083
   47      366.274          679
   48      366.738      679.833
   49      367.201      680.167
   50      367.665      681.417
   51      368.128      682.417
   52      368.592          682
   53      369.055          682
   54      369.518          682
   55      369.981      682.583
   56      370.444      682.833
   57      370.907          682
   58       371.37      682.417
   59      371.832      682.417
   60      372.295      682.333
   61      372.757      683.917
   62       373.22      683.917
   63      373.682      683.833
   64      374.145      685.167
   65      374.607      687.167
   66      375.069      687.917
   67      375.531      686.333
   68      375.993      687.167
   69      376.455       685.75
   70      376.917      683.333
   71      377.379      683.417
   72      377.841       684.75
   73      378.302      683.083
   74      378.764       682.75
   75      379.225      683.667
   76      379.687      683.083
   77      380.148      683.333
   78      380.609        683.5
   79      381.071      683.167
   80      381.532       684.75
   81      381.993       685.25
   82      382.454        683.5
   83      382.915          683
   84      383.375       683.25
   85      383.836        681.5
   86      384.297      682.583
   87      384.757      684.667
   88      385.218      684.333
   89      385.678      683.417
   90      386.138      682.583
   91      386.599        682.5
   92      387.059       683.25
   93      387.519      683.583
   94      387.979        682.5
   95      388.439      684.167
   96      388.899      685.167
   97      389.358      686.083
   98      389.818      685.917
   99      390.278      684.333
  100      390.737      686.083
  101      391.197      685.917
  102      391.656      685.667
  103      392.115      686.583
  104      392.575      687.167
  105      393.034       685.75
  106      393.493       684.75
  107      393.952      685.167
  108      394.411      687.417
  109       394.87      686.083
  110      395.328          683
  111      395.787      682.833
  112      396.246      683.583
  113      396.704      685.167
  114      397.163       684.25
  115      397.621      682.167
  116      398.079       682.25
  117      398.537      683.083
  118      398.995      682.583
  119      399.454       680.75
  120      399.911      679.167
  121      400.369      679.083
  122      400.827      678.583
  123      401.285      678.917
  124      401.743      679.917
  125        402.2      681.417
  126      402.658      681.583
  127      403.115       681.25
  128      403.572      682.417
  129       404.03        684.5
  130      404.487       684.75
  131      404.944          684
  132      405.401       684.25
  133      405.858      682.583
  134      406.315      682.333
  135      406.771        685.5
  136      407.228       686.75
  137      407.685      686.167
  138      408.141       685.25
  139      408.598      684.167
  140      409.054       682.75
  141       409.51       681.25
  142      409.967      680.333
  143      410.423      681.917
  144      410.879      682.833
  145      411.335       683.75
  146      411.791      683.833
  147      412.246       684.25
  148      412.702      684.167
  149      413.158          681
  150      413.613      680.667
  151      414.069      682.083
  152      414.524        683.5
  153       414.98      683.917
  154      415.435      683.583
  155       415.89      682.583
  156      416.345      682.167
  157        416.8        684.5
  158      417.255      685.333
  159       417.71      684.333
  160      418.165      686.667
  161      418.619      684.583
  162      419.074      684.083
  163      419.529          686
  164      419.983       686.25
  165      420.437      686.083
  166      420.892      686.917
  167      421.346        686.5
  168        421.8      684.667
  169      422.254      684.833
  170      422.708      686.083
  171      423.162      685.083
  172      423.616      685.167
  173       424.07       685.75
  174      424.523      684.333
  175      424.977      685.167
  176       425.43      685.833
  177      425.884        683.5
  178      426.337      683.167
  179       426.79      685.833
  180      427.243          685
  181      427.697       683.25
  182       428.15      682.833
  183      428.602          684
  184      429.055      683.333
  185      429.508      682.333
  186      429.961       682.75
  187      430.413      682.917
  188      430.866      682.833
  189      431.318      681.583
  190      431.771       681.75
  191      432.223      684.417
  192      432.675      686.833
  193      433.127      687.333
  194      433.579      688.333
  195      434.031      687.583
  196      434.483      687.333
  197      434.935      686.833
  198      435.387      686.917
  199      435.838        686.5
  200       436.29      684.583
  201      436.741       683.75
  202      437.193      683.417
  203      437.644      682.333
  204      438.095      680.917
  205      438.546      679.917
  206      438.997       678.75
  207      439.448      679.167
  208      439.899      683.417
  209       440.35      685.917
  210      440.801      684.333
  211      441.251       681.75
  212      441.702      681.667
  213      442.152      683.333
  214      442.603      683.917
  215      443.053      684.833
  216      443.503      683.167
  217      443.954      681.417
  218      444.404      682.083
  219      444.854      682.833
  220      445.304        682.5
  221      445.753          683
  222      446.203        684.5
  223      446.653       685.25
  224      447.102      683.083
  225      447.552      683.667
  226      448.001      684.667
  227      448.451      681.917
  228        448.9        680.5
  229      449.349       683.25
  230      449.798      685.083
  231      450.247      685.417
  232      450.696      685.083
  233      451.145      684.667
  234      451.594      685.167
  235      452.042      685.667
  236      452.491      685.917
  237      452.939       686.25
  238      453.388      685.583
  239      453.836      685.167
  240      454.285          685
  241      454.733      684.833
  242      455.181      684.167
  243      455.629      683.083
  244      456.077        684.5
  245      456.525      687.167
  246      456.972      686.333
  247       457.42       685.75
  248      457.868      686.667
  249      458.315       685.25
  250      458.763      683.167
  251       459.21      683.583
  252      459.657      683.917
  253      460.104      682.667
  254      460.552      681.083
  255      460.999      681.833
  256      461.446          683
  257      461.892      684.917
  258      462.339      686.417
  259      462.786        686.5
  260      463.233      684.833
  261      463.679      685.583
  262      464.125       685.25
  263      464.572       684.25
  264      465.018      684.667
  265      465.464      684.917
  266       465.91        683.5
  267      466.356      681.583
  268      466.802      680.167
  269      467.248      679.917
  270      467.694      680.333
  271       468.14      681.083
  272      468.585        682.5
  273      469.031      685.167
  274      469.476          685
  275      469.922       684.25
  276      470.367      686.667
  277      470.812       687.25
  278      471.257      688.083
  279      471.702          688
  280      472.147        687.5
  281      472.592      685.917
  282      473.037      682.417
  283      473.482      682.667
  284      473.926      685.917
  285      474.371          687
  286      474.815          687
  287      475.259      688.417
  288      475.704      687.583
  289      476.148          685
  290      476.592      683.833
  291      477.036          685
  292       477.48      684.417
  293      477.924       683.25
  294      478.368          683
  295      478.811      684.167
  296      479.255      684.167
  297      479.698        682.5
  298      480.142      681.667
  299      480.585      682.833
  300      481.028        682.5
  301      481.472        682.5
  302      481.915      683.833
  303      482.358      685.917
  304      482.801      684.167
  305      483.244       681.75
  306      483.686          682
  307      484.129      683.083
  308      484.572        685.5
  309      485.014      686.333
  310      485.456      683.667
  311      485.899       682.25
  312      486.341        682.5
  313      486.783      683.083
  314      487.225      682.917
  315      487.667       683.75
  316      488.109      686.333
  317      488.551      688.667
  318      488.993        688.5
  319      489.434      687.167
  320      489.876       685.25
  321      490.318      685.083
  322      490.759          685
  323        491.2      686.417
  324      491.641      688.833
  325      492.083      688.667
  326      492.524      687.167
  327      492.965      687.667
  328      493.406      688.667
  329      493.846          688
  330      494.287      688.167
  331      494.728      688.917
  332      495.168       687.75
  333      495.609      687.333
  334      496.049      686.167
  335      496.489      687.083
  336       496.93      687.917
  337       497.37      688.083
  338       497.81          691
  339       498.25      692.167
  340       498.69        691.5
  341      499.129      691.417
  342      499.569        693.5
  343      500.009          695
  344      500.448      695.833
  345      500.888      694.583
  346      501.327      693.167
  347      501.766          693
  348      502.206      693.167
  349      502.645      695.333
  350      503.084      697.083
  351      503.523       698.25
  352      503.961      697.667
  353        504.4      697.833
  354      504.839        698.5
  355      505.277      700.333
  356      505.716          700
  357      506.154      699.167
  358      506.593        699.5
  359      507.031      698.083
  360      507.469      697.167
  361      507.907      699.167
  362      508.345      701.583
  363      508.783      703.583
  364      509.221      704.167
  365      509.659      703.917
  366      510.096      704.583
  367      510.534          707
  368      510.971      706.083
  369      511.409      705.833
  370      511.846      708.167
  371      512.283      707.833
  372       512.72          708
  373      513.157        709.5
  374      513.594      710.833
  375      514.031       710.75
  376      514.468      709.917
  377      514.905      712.083
  378      515.341       713.75
  379      515.778      713.083
  380      516.214       713.25
  381       516.65      713.333
  382      517.087      714.833
  383      517.523      718.333
  384      517.959      719.583
  385      518.395        717.5
  386      518.831      718.167
  387      519.267        720.5
  388      519.702      721.583
  389      520.138      724.083
  390      520.574        727.5
  391      521.009          726
  392      521.444       722.75
  393       521.88      721.333
  394      522.315      724.417
  395       522.75      727.417
  396      523.185      729.583
  397       523.62          732
  398      524.055      734.667
  399       524.49       735.25
  400      524.924       733.75
  401      525.359      734.417
  402      525.794       734.75
  403      526.228      733.833
  404      526.662      733.917
  405      527.097      736.583
  406      527.531       739.25
  407      527.965      742.333
  408      528.399          743
  409      528.833      742.667
  410      529.267      744.417
  411        529.7      746.667
  412      530.134      748.583
  413      530.568      749.417
  414      531.001          752
  415      531.434        754.5
  416      531.868      754.083
  417      532.301      753.917
  418      532.734      757.583
  419      533.167       761.25
  420        533.6        761.5
  421      534.033       764.75
  422      534.466      767.833
  423      534.898      767.667
  424      535.331      770.083
  425      535.763      773.667
  426      536.196      773.583
  427      536.628      773.167
  428       537.06      774.333
  429      537.493      775.083
  430      537.925       777.25
  431      538.357          779
  432      538.788       780.75
  433       539.22       782.75
  434      539.652      784.167
  435      540.084      786.583
  436      540.515      788.167
  437      540.947      788.417
  438      541.378      788.333
  439      541.809      791.083
  440       542.24      794.417
  441      542.672        795.5
  442      543.103      797.083
  443      543.533      799.833
  444      543.964       803.75
  445      544.395      806.833
  446      544.826      805.583
  447      545.256      806.167
  448      545.687          808
  449      546.117      810.333
  450      546.547      810.667
  451      546.978      813.167
  452      547.408      816.333
  453      547.838      817.917
  454      548.268      821.083
  455      548.698       822.75
  456      549.127      822.167
  457      549.557      823.833
  458      549.987      828.167
  459      550.416          832
  460      550.846       832.25
  461      551.275      832.583
  462      551.704      834.417
  463      552.133      833.833
  464      552.562       833.25
  465      552.991      836.333
  466       553.42       839.25
  467      553.849      843.417
  468      554.278      847.583
  469      554.706      849.667
  470      555.135       850.75
  471      555.563      855.583
  472      555.991       858.75
  473       556.42      859.083
  474      556.848       861.25
  475      557.276      864.417
  476      557.704      868.167
  477      558.132          869
  478       558.56      867.833
  479      558.987      869.667
  480      559.415       875.25
  481      559.843       877.75
  482       560.27      881.917
  483      560.697       887.75
  484      561.125      889.583
  485      561.552       889.75
  486      561.979      890.583
  487      562.406      892.167
  488      562.833          895
  489       563.26      897.333
  490      563.686      900.583
  491      564.113          905
  492       564.54      908.583
  493      564.966      911.917
  494      565.392          915
  495      565.819      918.833
  496      566.245      922.417
  497      566.671        925.5
  498      567.097       930.25
  499      567.523      933.167
  500      567.949      933.333
  501      568.374      935.083
  502        568.8      937.833
  503      569.226          942
  504      569.651      946.083
  505      570.077      950.333
  506      570.502      955.083
  507      570.927      959.167
  508      571.352      964.167
  509      571.777      968.417
  510      572.202      971.417
  511      572.627      972.833
  512      573.052      975.583
  513      573.476      979.333
  514      573.901      981.417
  515      574.325      984.583
  516       574.75      987.583
  517      575.174      990.917
  518      575.598       994.75
  519      576.022      996.667
  520      576.446          997
  521       576.87      1000.42
  522      577.294      1004.42
  523      577.718      1008.92
  524      578.142         1015
  525      578.565         1019
  526      578.989      1021.33
  527      579.412      1028.25
  528      579.835         1034
  529      580.259      1037.17
  530      580.682       1043.5
  531      581.105      1050.58
  532      581.528      1055.83
  533      581.951      1060.08
  534      582.373      1065.83
  535      582.796      1071.58
  536      583.219      1077.08
  537      583.641      1083.67
  538      584.063      1089.25
  539      584.486      1092.58
  540      584.908      1097.75
  541       585.33      1102.08
  542      585.752      1104.33
  543      586.174      1111.92
  544      586.596      1116.42
  545      587.018      1120.42
  546      587.439      1125.83
  547      587.861      1129.25
  548      588.282         1136
  549      588.704      1142.67
  550      589.125      1146.67
  551      589.546      1150.67
  552      589.967      1155.42
  553      590.388      1162.83
  554      590.809         1172
  555       591.23      1176.58
  556      591.651      1182.67
  557      592.071       1189.5
  558      592.492      1194.67
  559      592.912      1205.92
  560      593.333      1217.33
  561      593.753         1223
  562      594.173      1226.17
  563      594.593       1230.5
  564      595.013      1237.17
  565      595.433       1240.5
  566      595.853      1243.08
  567      596.273      1246.83
  568      596.693      1250.17
  569      597.112      1254.17
  570      597.532      1256.83
  571      597.951         1260
  572       598.37      1267.33
  573      598.789      1271.33
  574      599.208      1277.92
  575      599.627      1286.58
  576      600.046       1288.5
  577      600.465      1292.08
  578      600.884      1297.25
  579      601.303      1298.42
  580      601.721      1297.08
  581      602.139       1301.5
  582      602.558      1307.25
  583      602.976      1309.58
  584      603.394       1315.5
  585      603.812      1318.67
  586       604.23      1316.42
  587      604.648      1318.75
  588      605.066      1326.42
  589      605.484       1334.5
  590      605.901      1337.92
  591      606.319      1342.83
