scansci Spectrometer Data File
--- Measurement Setting ---
Type: Sample Spectrum
Date: Tue Nov 11 11:47:47 2025
User: (Reserved by scansci)
Serial: (Reserved by scansci)
Channel: No. 11
Integration Time: 9
Average: 12
Boxcar: 0
Electrical Dark: No-corrected
Time Normalize: (Reserved by scansci)
Dual-beam: (Reserved by scansci)
Reference Ch: (Reserved by scansci)
--- Measurement Data ---
Pixel   Wavelength   Intensity
    0        344.4        686.5
    1      344.867       686.25
    2      345.334      685.583
    3      345.801      686.417
    4      346.268      687.583
    5      346.735       689.75
    6      347.202       690.25
    7      347.669      688.167
    8      348.135      686.917
    9      348.602      686.583
   10      349.068      685.417
   11      349.535       685.25
   12      350.001      686.167
   13      350.467      685.583
   14      350.933        685.5
   15      351.399        686.5
   16      351.866       687.25
   17      352.331          689
   18      352.797      690.833
   19      353.263      691.417
   20      353.729      692.333
   21      354.194      693.083
   22       354.66      693.583
   23      355.126          692
   24      355.591      689.833
   25      356.056      686.917
   26      356.522      685.417
   27      356.987      684.917
   28      357.452      686.167
   29      357.917          688
   30      358.382      688.167
   31      358.847      689.083
   32      359.312       689.75
   33      359.776      689.417
   34      360.241      688.583
   35      360.706          687
   36       361.17        687.5
   37      361.634        687.5
   38      362.099          687
   39      362.563      687.917
   40      363.027        689.5
   41      363.491      689.833
   42      363.955      688.333
   43      364.419       688.25
   44      364.883      689.667
   45      365.347      688.583
   46      365.811      686.917
   47      366.274      685.583
   48      366.738      685.667
   49      367.201      685.917
   50      367.665      686.333
   51      368.128        687.5
   52      368.592      687.917
   53      369.055      688.667
   54      369.518      688.417
   55      369.981      688.333
   56      370.444      689.667
   57      370.907        692.5
   58       371.37      692.667
   59      371.832      689.917
   60      372.295      687.667
   61      372.757      686.583
   62       373.22      686.333
   63      373.682      688.167
   64      374.145      688.917
   65      374.607      687.083
   66      375.069        686.5
   67      375.531      686.583
   68      375.993      685.917
   69      376.455       686.75
   70      376.917        688.5
   71      377.379       688.75
   72      377.841        689.5
   73      378.302      689.667
   74      378.764        687.5
   75      379.225       687.75
   76      379.687      690.417
   77      380.148        689.5
   78      380.609      687.333
   79      381.071      688.083
   80      381.532      688.917
   81      381.993      688.083
   82      382.454      686.333
   83      382.915      686.083
   84      383.375      685.917
   85      383.836      685.583
   86      384.297        686.5
   87      384.757      687.167
   88      385.218      686.583
   89      385.678      687.417
   90      386.138      688.417
   91      386.599      688.833
   92      387.059       688.75
   93      387.519      686.667
   94      387.979       686.25
   95      388.439      685.833
   96      388.899      682.667
   97      389.358       682.25
   98      389.818       684.25
   99      390.278      683.417
  100      390.737      684.583
  101      391.197      687.167
  102      391.656      688.333
  103      392.115      689.917
  104      392.575        690.5
  105      393.034      688.333
  106      393.493      687.083
  107      393.952          687
  108      394.411      685.917
  109       394.87        685.5
  110      395.328      684.083
  111      395.787      685.667
  112      396.246      688.667
  113      396.704          688
  114      397.163      687.333
  115      397.621       687.75
  116      398.079      686.667
  117      398.537      686.417
  118      398.995          689
  119      399.454      689.083
  120      399.911       689.25
  121      400.369      689.833
  122      400.827      690.833
  123      401.285        690.5
  124      401.743          690
  125        402.2      688.083
  126      402.658      688.333
  127      403.115          688
  128      403.572       686.75
  129       404.03       685.25
  130      404.487      687.083
  131      404.944      689.583
  132      405.401       689.75
  133      405.858      688.417
  134      406.315       690.25
  135      406.771       693.25
  136      407.228      691.833
  137      407.685      687.333
  138      408.141        685.5
  139      408.598      687.167
  140      409.054       688.75
  141       409.51      689.833
  142      409.967      690.583
  143      410.423      689.833
  144      410.879      688.833
  145      411.335      687.333
  146      411.791          688
  147      412.246      688.083
  148      412.702      687.667
  149      413.158      689.333
  150      413.613      692.333
  151      414.069      691.167
  152      414.524      689.583
  153       414.98      691.667
  154      415.435      691.083
  155       415.89      688.833
  156      416.345      690.583
  157        416.8      691.667
  158      417.255        691.5
  159       417.71       690.25
  160      418.165      689.083
  161      418.619      689.667
  162      419.074      690.083
  163      419.529      689.083
  164      419.983        687.5
  165      420.437      687.333
  166      420.892      687.083
  167      421.346      686.417
  168        421.8      686.667
  169      422.254      687.417
  170      422.708      688.417
  171      423.162      689.167
  172      423.616      689.083
  173       424.07      688.667
  174      424.523      687.917
  175      424.977      687.333
  176       425.43       687.75
  177      425.884      687.667
  178      426.337      687.667
  179       426.79      687.417
  180      427.243      686.667
  181      427.697      686.083
  182       428.15      687.167
  183      428.602      688.583
  184      429.055       688.25
  185      429.508      688.083
  186      429.961        687.5
  187      430.413      686.167
  188      430.866       685.75
  189      431.318          687
  190      431.771      687.167
  191      432.223      686.083
  192      432.675          686
  193      433.127       685.75
  194      433.579      686.833
  195      434.031        689.5
  196      434.483      690.417
  197      434.935       691.25
  198      435.387      688.583
  199      435.838      686.583
  200       436.29       687.25
  201      436.741      686.917
  202      437.193      684.083
  203      437.644      681.917
  204      438.095       684.25
  205      438.546      688.667
  206      438.997       688.25
  207      439.448      689.167
  208      439.899       690.75
  209       440.35      690.833
  210      440.801      689.667
  211      441.251       686.75
  212      441.702      686.583
  213      442.152       686.75
  214      442.603       686.75
  215      443.053      686.917
  216      443.503      687.667
  217      443.954      689.167
  218      444.404      690.833
  219      444.854        690.5
  220      445.304          691
  221      445.753       692.25
  222      446.203          693
  223      446.653      694.333
  224      447.102       694.25
  225      447.552      693.083
  226      448.001      689.167
  227      448.451          686
  228        448.9      687.083
  229      449.349      687.417
  230      449.798       687.75
  231      450.247      687.583
  232      450.696          687
  233      451.145      687.083
  234      451.594      687.583
  235      452.042       690.25
  236      452.491      690.917
  237      452.939      689.083
  238      453.388      687.167
  239      453.836        686.5
  240      454.285      686.917
  241      454.733      688.167
  242      455.181      687.833
  243      455.629      687.417
  244      456.077      689.167
  245      456.525      689.667
  246      456.972      688.667
  247       457.42      688.083
  248      457.868       689.25
  249      458.315      688.917
  250      458.763        687.5
  251       459.21      687.583
  252      459.657          687
  253      460.104      686.583
  254      460.552      687.083
  255      460.999      687.333
  256      461.446      688.583
  257      461.892      689.833
  258      462.339      689.083
  259      462.786      688.167
  260      463.233      688.417
  261      463.679       687.75
  262      464.125      686.333
  263      464.572      686.667
  264      465.018      686.917
  265      465.464      687.167
  266       465.91          687
  267      466.356      685.167
  268      466.802          684
  269      467.248       685.25
  270      467.694       687.75
  271       468.14      690.167
  272      468.585      687.917
  273      469.031      688.917
  274      469.476       690.25
  275      469.922        690.5
  276      470.367       690.75
  277      470.812      689.833
  278      471.257      689.417
  279      471.702        689.5
  280      472.147      690.667
  281      472.592        690.5
  282      473.037       689.75
  283      473.482          689
  284      473.926          688
  285      474.371      686.583
  286      474.815          686
  287      475.259      686.833
  288      475.704       688.25
  289      476.148      690.083
  290      476.592        691.5
  291      477.036          693
  292       477.48          694
  293      477.924          693
  294      478.368      692.083
  295      478.811          691
  296      479.255          689
  297      479.698        688.5
  298      480.142      689.083
  299      480.585       690.75
  300      481.028       691.25
  301      481.472      689.333
  302      481.915      689.417
  303      482.358       691.25
  304      482.801       691.25
  305      483.244      690.167
  306      483.686      691.083
  307      484.129      691.917
  308      484.572      692.083
  309      485.014       693.75
  310      485.456      694.333
  311      485.899          694
  312      486.341      694.083
  313      486.783      693.417
  314      487.225      693.333
  315      487.667      694.083
  316      488.109      693.417
  317      488.551      693.833
  318      488.993      693.667
  319      489.434      691.833
  320      489.876      692.167
  321      490.318       693.25
  322      490.759      694.083
  323        491.2      695.167
  324      491.641       696.25
  325      492.083      696.917
  326      492.524      697.917
  327      492.965      698.167
  328      493.406          697
  329      493.846      695.917
  330      494.287      696.917
  331      494.728      697.167
  332      495.168        697.5
  333      495.609      698.833
  334      496.049       699.75
  335      496.489       698.25
  336       496.93      698.833
  337       497.37      702.833
  338       497.81      706.167
  339       498.25          710
  340       498.69      711.833
  341      499.129      712.083
  342      499.569      712.417
  343      500.009      713.167
  344      500.448      714.333
  345      500.888        716.5
  346      501.327      717.333
  347      501.766       718.75
  348      502.206       719.75
  349      502.645          719
  350      503.084      721.333
  351      503.523      723.833
  352      503.961        724.5
  353        504.4      724.167
  354      504.839        725.5
  355      505.277       728.75
  356      505.716      730.083
  357      506.154          730
  358      506.593      731.917
  359      507.031      732.833
  360      507.469          733
  361      507.907      733.833
  362      508.345       738.25
  363      508.783       742.25
  364      509.221      742.917
  365      509.659      742.583
  366      510.096      744.083
  367      510.534        748.5
  368      510.971      752.167
  369      511.409      755.667
  370      511.846       759.75
  371      512.283      761.833
  372       512.72      762.667
  373      513.157      764.667
  374      513.594      765.667
  375      514.031      766.167
  376      514.468      768.333
  377      514.905      771.167
  378      515.341          773
  379      515.778      773.417
  380      516.214      776.083
  381       516.65       776.75
  382      517.087      777.333
  383      517.523      781.917
  384      517.959       786.25
  385      518.395      789.583
  386      518.831      790.417
  387      519.267      791.667
  388      519.702      794.667
  389      520.138      798.083
  390      520.574       798.75
  391      521.009      800.333
  392      521.444      804.583
  393       521.88      807.167
  394      522.315       808.25
  395       522.75        812.5
  396      523.185      816.583
  397       523.62          818
  398      524.055      821.917
  399       524.49       828.25
  400      524.924      830.833
  401      525.359      831.167
  402      525.794          833
  403      526.228      837.583
  404      526.662      842.083
  405      527.097      844.083
  406      527.531      847.917
  407      527.965       853.75
  408      528.399      859.083
  409      528.833       862.75
  410      529.267          864
  411        529.7       864.25
  412      530.134      865.417
  413      530.568      869.583
  414      531.001      874.417
  415      531.434      877.917
  416      531.868      880.917
  417      532.301       885.25
  418      532.734      890.417
  419      533.167      897.167
  420        533.6       902.75
  421      534.033      906.167
  422      534.466      906.833
  423      534.898       910.25
  424      535.331      916.583
  425      535.763      921.167
  426      536.196      926.583
  427      536.628      928.833
  428       537.06      933.833
  429      537.493      938.583
  430      537.925      943.167
  431      538.357      946.417
  432      538.788      950.833
  433       539.22       955.75
  434      539.652      960.083
  435      540.084          965
  436      540.515      968.333
  437      540.947      969.167
  438      541.378      971.333
  439      541.809      978.167
  440       542.24      986.917
  441      542.672      990.417
  442      543.103        994.5
  443      543.533      997.167
  444      543.964      1000.83
  445      544.395      1007.75
  446      544.826      1012.67
  447      545.256      1018.25
  448      545.687      1023.08
  449      546.117      1026.42
  450      546.547      1031.92
  451      546.978      1036.67
  452      547.408      1041.83
  453      547.838      1046.25
  454      548.268      1052.17
  455      548.698         1060
  456      549.127      1066.25
  457      549.557      1069.08
  458      549.987      1072.25
  459      550.416      1074.42
  460      550.846      1077.83
  461      551.275      1084.17
  462      551.704      1087.92
  463      552.133      1091.92
  464      552.562      1096.83
  465      552.991      1106.17
  466       553.42      1115.75
  467      553.849      1119.25
  468      554.278      1124.25
  469      554.706      1129.17
  470      555.135      1133.17
  471      555.563       1137.5
  472      555.991      1144.08
  473       556.42      1150.67
  474      556.848      1154.58
  475      557.276       1161.5
  476      557.704         1169
  477      558.132      1175.33
  478       558.56      1183.42
  479      558.987      1189.92
  480      559.415      1194.08
  481      559.843         1200
  482       560.27       1208.5
  483      560.697      1216.67
  484      561.125      1224.25
  485      561.552      1227.83
  486      561.979       1229.5
  487      562.406      1235.17
  488      562.833      1245.08
  489       563.26         1252
  490      563.686      1256.58
  491      564.113      1262.25
  492       564.54       1271.5
  493      564.966      1281.25
  494      565.392      1286.58
  495      565.819         1294
  496      566.245      1303.08
  497      566.671      1312.67
  498      567.097         1322
  499      567.523      1330.17
  500      567.949      1339.25
  501      568.374      1348.75
  502        568.8      1358.33
  503      569.226      1368.17
  504      569.651      1377.58
  505      570.077       1383.5
  506      570.502      1390.33
  507      570.927      1397.42
  508      571.352      1407.08
  509      571.777      1415.67
  510      572.202         1423
  511      572.627      1429.17
  512      573.052      1435.17
  513      573.476      1444.75
  514      573.901      1457.67
  515      574.325      1471.67
  516       574.75      1481.67
  517      575.174      1489.92
  518      575.598      1501.33
  519      576.022      1508.67
  520      576.446      1515.58
  521       576.87      1526.83
  522      577.294      1535.08
  523      577.718       1542.5
  524      578.142         1555
  525      578.565      1567.08
  526      578.989      1576.42
  527      579.412      1587.67
  528      579.835      1597.25
  529      580.259         1608
  530      580.682         1622
  531      581.105      1638.08
  532      581.528      1654.75
  533      581.951         1661
  534      582.373      1670.33
  535      582.796      1681.75
  536      583.219      1688.33
  537      583.641      1697.83
  538      584.063      1708.75
  539      584.486      1722.83
  540      584.908      1739.83
  541       585.33      1753.08
  542      585.752      1763.67
  543      586.174      1776.33
  544      586.596      1785.33
  545      587.018      1801.75
  546      587.439      1821.33
  547      587.861      1830.75
  548      588.282      1845.17
  549      588.704      1861.75
  550      589.125         1878
  551      589.546      1890.75
  552      589.967      1903.17
  553      590.388      1915.67
  554      590.809      1928.58
  555       591.23      1944.58
  556      591.651      1962.75
  557      592.071      1984.33
  558      592.492      2000.92
  559      592.912      2015.83
  560      593.333      2034.25
  561      593.753      2049.33
  562      594.173         2063
  563      594.593      2071.92
  564      595.013      2083.83
  565      595.433      2097.08
  566      595.853      2109.33
  567      596.273      2118.83
  568      596.693      2126.83
  569      597.112      2139.08
  570      597.532      2150.58
  571      597.951      2159.25
  572       598.37      2173.58
  573      598.789       2183.5
  574      599.208       2188.5
  575      599.627      2200.83
  576      600.046      2214.75
  577      600.465      2223.25
  578      600.884      2226.75
  579      601.303      2231.58
  580      601.721      2236.67
  581      602.139      2245.42
  582      602.558      2258.25
  583      602.976      2269.17
  584      603.394      2280.25
  585      603.812      2281.92
  586       604.23      2277.58
  587      604.648      2285.25
  588      605.066      2305.25
  589      605.484      2320.67
  590      605.901      2328.17
  591      606.319      2335.92
