scansci Spectrometer Data File
--- Measurement Setting ---
Type: Sample Spectrum
Date: Tue Nov 11 11:48:24 2025
User: (Reserved by scansci)
Serial: (Reserved by scansci)
Channel: No. 11
Integration Time: 9
Average: 12
Boxcar: 0
Electrical Dark: No-corrected
Time Normalize: (Reserved by scansci)
Dual-beam: (Reserved by scansci)
Reference Ch: (Reserved by scansci)
--- Measurement Data ---
Pixel   Wavelength   Intensity
    0        344.4      687.583
    1      344.867          686
    2      345.334      684.917
    3      345.801      684.583
    4      346.268      685.083
    5      346.735      685.917
    6      347.202      687.833
    7      347.669        687.5
    8      348.135      685.583
    9      348.602      684.583
   10      349.068          685
   11      349.535      685.417
   12      350.001      686.083
   13      350.467      686.917
   14      350.933      686.083
   15      351.399      688.667
   16      351.866      691.083
   17      352.331       688.75
   18      352.797      687.333
   19      353.263      686.333
   20      353.729      684.083
   21      354.194        681.5
   22       354.66      680.333
   23      355.126       680.25
   24      355.591      681.583
   25      356.056       682.75
   26      356.522       683.25
   27      356.987      683.167
   28      357.452      682.917
   29      357.917      683.917
   30      358.382          685
   31      358.847      687.417
   32      359.312       687.75
   33      359.776      686.833
   34      360.241      687.583
   35      360.706       688.25
   36       361.17      688.417
   37      361.634      688.417
   38      362.099      689.083
   39      362.563       687.75
   40      363.027      687.083
   41      363.491          688
   42      363.955          688
   43      364.419      687.833
   44      364.883       685.75
   45      365.347      685.167
   46      365.811      686.083
   47      366.274       685.25
   48      366.738      686.167
   49      367.201          687
   50      367.665       687.75
   51      368.128      687.917
   52      368.592      687.083
   53      369.055      686.417
   54      369.518      684.583
   55      369.981      683.333
   56      370.444      684.333
   57      370.907        684.5
   58       371.37          685
   59      371.832      686.667
   60      372.295      687.083
   61      372.757        686.5
   62       373.22      686.083
   63      373.682      685.333
   64      374.145      683.667
   65      374.607       683.75
   66      375.069      683.833
   67      375.531        684.5
   68      375.993      685.917
   69      376.455       685.75
   70      376.917      684.333
   71      377.379       683.75
   72      377.841      686.083
   73      378.302      686.917
   74      378.764      687.833
   75      379.225      688.917
   76      379.687      689.417
   77      380.148      689.083
   78      380.609      688.083
   79      381.071       685.75
   80      381.532       685.75
   81      381.993       687.25
   82      382.454      686.917
   83      382.915        687.5
   84      383.375      687.833
   85      383.836      687.083
   86      384.297      687.583
   87      384.757      688.167
   88      385.218      685.917
   89      385.678      683.917
   90      386.138       684.25
   91      386.599          683
   92      387.059       683.75
   93      387.519      686.417
   94      387.979      685.667
   95      388.439      684.917
   96      388.899      686.667
   97      389.358      686.583
   98      389.818      685.167
   99      390.278      683.583
  100      390.737      683.583
  101      391.197       685.25
  102      391.656      686.417
  103      392.115      685.917
  104      392.575       685.25
  105      393.034      685.917
  106      393.493          688
  107      393.952          689
  108      394.411      687.667
  109       394.87      687.083
  110      395.328      685.917
  111      395.787      684.667
  112      396.246      685.667
  113      396.704      685.333
  114      397.163      683.667
  115      397.621      685.083
  116      398.079      687.583
  117      398.537      687.417
  118      398.995      688.333
  119      399.454      689.167
  120      399.911      688.667
  121      400.369      687.583
  122      400.827      686.833
  123      401.285      684.083
  124      401.743        683.5
  125        402.2      684.833
  126      402.658      684.583
  127      403.115      684.917
  128      403.572        684.5
  129       404.03      685.417
  130      404.487      685.417
  131      404.944      684.667
  132      405.401      684.417
  133      405.858      685.583
  134      406.315          685
  135      406.771      685.917
  136      407.228          688
  137      407.685        688.5
  138      408.141      687.667
  139      408.598      686.917
  140      409.054      685.417
  141       409.51      683.583
  142      409.967       683.75
  143      410.423      685.417
  144      410.879      687.833
  145      411.335      688.833
  146      411.791      686.833
  147      412.246      685.667
  148      412.702      685.917
  149      413.158      686.333
  150      413.613      686.833
  151      414.069      686.083
  152      414.524      685.833
  153       414.98      685.833
  154      415.435        686.5
  155       415.89      686.583
  156      416.345       685.25
  157        416.8      685.417
  158      417.255      685.083
  159       417.71      683.833
  160      418.165          686
  161      418.619       687.75
  162      419.074          688
  163      419.529       688.75
  164      419.983       689.25
  165      420.437      688.833
  166      420.892        687.5
  167      421.346      686.917
  168        421.8      688.333
  169      422.254       687.25
  170      422.708      687.417
  171      423.162      688.083
  172      423.616       688.25
  173       424.07       688.75
  174      424.523        687.5
  175      424.977       688.25
  176       425.43      689.167
  177      425.884      688.667
  178      426.337      689.583
  179       426.79          691
  180      427.243      691.083
  181      427.697      688.083
  182       428.15      689.667
  183      428.602      690.083
  184      429.055      689.583
  185      429.508      691.667
  186      429.961      692.167
  187      430.413      691.917
  188      430.866        690.5
  189      431.318      689.083
  190      431.771      690.583
  191      432.223      692.667
  192      432.675          694
  193      433.127       691.75
  194      433.579      690.083
  195      434.031          691
  196      434.483      691.417
  197      434.935      690.333
  198      435.387          688
  199      435.838      686.333
  200       436.29       686.25
  201      436.741      685.917
  202      437.193      685.917
  203      437.644      686.833
  204      438.095       688.75
  205      438.546      687.667
  206      438.997      686.333
  207      439.448      686.667
  208      439.899       686.25
  209       440.35          687
  210      440.801       687.75
  211      441.251      688.167
  212      441.702       688.75
  213      442.152       689.75
  214      442.603      688.833
  215      443.053      688.667
  216      443.503          689
  217      443.954      688.667
  218      444.404      689.083
  219      444.854      690.667
  220      445.304      691.917
  221      445.753      692.833
  222      446.203      691.083
  223      446.653      689.083
  224      447.102      689.083
  225      447.552      689.667
  226      448.001      688.167
  227      448.451      687.167
  228        448.9      687.833
  229      449.349      687.917
  230      449.798      688.333
  231      450.247        689.5
  232      450.696      689.083
  233      451.145       688.75
  234      451.594        688.5
  235      452.042      689.917
  236      452.491          690
  237      452.939      690.583
  238      453.388      690.333
  239      453.836      689.417
  240      454.285      690.583
  241      454.733       690.75
  242      455.181      690.333
  243      455.629      690.417
  244      456.077      690.083
  245      456.525      687.333
  246      456.972      685.417
  247       457.42      686.583
  248      457.868      687.167
  249      458.315      686.583
  250      458.763      688.167
  251       459.21       689.75
  252      459.657        689.5
  253      460.104      689.667
  254      460.552      691.083
  255      460.999       690.25
  256      461.446      689.667
  257      461.892      687.833
  258      462.339      688.167
  259      462.786      690.167
  260      463.233       689.75
  261      463.679      689.083
  262      464.125      689.583
  263      464.572      688.167
  264      465.018      688.667
  265      465.464      689.417
  266       465.91      689.917
  267      466.356      691.417
  268      466.802       691.75
  269      467.248      691.333
  270      467.694      691.417
  271       468.14      689.667
  272      468.585          689
  273      469.031       689.75
  274      469.476      691.333
  275      469.922      691.083
  276      470.367          690
  277      470.812      689.917
  278      471.257       690.25
  279      471.702      690.583
  280      472.147          691
  281      472.592      690.333
  282      473.037       689.75
  283      473.482          688
  284      473.926      686.917
  285      474.371          688
  286      474.815      688.333
  287      475.259      688.667
  288      475.704      689.167
  289      476.148       687.75
  290      476.592      684.583
  291      477.036      684.583
  292       477.48        687.5
  293      477.924      689.167
  294      478.368        688.5
  295      478.811      688.667
  296      479.255        689.5
  297      479.698      689.333
  298      480.142      689.167
  299      480.585      690.333
  300      481.028       691.25
  301      481.472      692.583
  302      481.915       693.75
  303      482.358      693.583
  304      482.801      693.083
  305      483.244      691.917
  306      483.686        690.5
  307      484.129      691.333
  308      484.572      690.583
  309      485.014        688.5
  310      485.456        689.5
  311      485.899      690.417
  312      486.341      690.417
  313      486.783       692.25
  314      487.225       693.25
  315      487.667      690.917
  316      488.109      688.917
  317      488.551       688.25
  318      488.993      689.167
  319      489.434       690.75
  320      489.876      691.833
  321      490.318        693.5
  322      490.759      693.167
  323        491.2      692.333
  324      491.641      693.167
  325      492.083          694
  326      492.524       693.75
  327      492.965      692.167
  328      493.406      690.583
  329      493.846       692.75
  330      494.287      695.333
  331      494.728      694.583
  332      495.168        694.5
  333      495.609      696.667
  334      496.049      698.167
  335      496.489      699.833
  336       496.93        700.5
  337       497.37       702.25
  338       497.81      702.667
  339       498.25      703.333
  340       498.69      707.417
  341      499.129      711.333
  342      499.569      713.083
  343      500.009      714.917
  344      500.448      714.417
  345      500.888       713.25
  346      501.327          715
  347      501.766      716.833
  348      502.206      716.417
  349      502.645          716
  350      503.084      718.667
  351      503.523      721.583
  352      503.961       721.75
  353        504.4      722.417
  354      504.839          725
  355      505.277      727.333
  356      505.716          728
  357      506.154      728.083
  358      506.593      729.417
  359      507.031      733.083
  360      507.469      734.667
  361      507.907        734.5
  362      508.345      737.583
  363      508.783      740.167
  364      509.221      740.917
  365      509.659      741.667
  366      510.096      742.667
  367      510.534      745.417
  368      510.971      750.417
  369      511.409       752.25
  370      511.846          753
  371      512.283       753.25
  372       512.72          753
  373      513.157      755.833
  374      513.594      760.417
  375      514.031      764.583
  376      514.468      766.583
  377      514.905       768.75
  378      515.341       769.75
  379      515.778      772.917
  380      516.214        775.5
  381       516.65      775.833
  382      517.087      778.417
  383      517.523      780.167
  384      517.959      782.167
  385      518.395       786.25
  386      518.831      790.583
  387      519.267      792.667
  388      519.702       796.25
  389      520.138          800
  390      520.574       801.25
  391      521.009      800.333
  392      521.444       802.75
  393       521.88       807.75
  394      522.315      812.583
  395       522.75          815
  396      523.185      817.083
  397       523.62      820.417
  398      524.055        823.5
  399       524.49      823.417
  400      524.924      825.667
  401      525.359      829.333
  402      525.794      832.333
  403      526.228        836.5
  404      526.662       840.25
  405      527.097      843.917
  406      527.531      849.333
  407      527.965          852
  408      528.399          853
  409      528.833      855.833
  410      529.267      857.917
  411        529.7      860.667
  412      530.134        866.5
  413      530.568        871.5
  414      531.001      875.917
  415      531.434       879.25
  416      531.868      881.833
  417      532.301       886.75
  418      532.734      892.083
  419      533.167          897
  420        533.6      899.417
  421      534.033      903.417
  422      534.466      908.167
  423      534.898          914
  424      535.331       919.75
  425      535.763      924.583
  426      536.196      930.917
  427      536.628      934.083
  428       537.06      938.833
  429      537.493        944.5
  430      537.925      946.167
  431      538.357      948.333
  432      538.788      954.167
  433       539.22      959.083
  434      539.652      961.917
  435      540.084          966
  436      540.515      970.417
  437      540.947      974.083
  438      541.378      978.833
  439      541.809      984.083
  440       542.24          989
  441      542.672      993.917
  442      543.103      997.917
  443      543.533      998.833
  444      543.964      1001.25
  445      544.395      1007.08
  446      544.826       1010.5
  447      545.256      1013.67
  448      545.687      1022.17
  449      546.117      1030.25
  450      546.547      1035.08
  451      546.978      1040.25
  452      547.408      1043.75
  453      547.838      1044.33
  454      548.268      1045.92
  455      548.698      1050.08
  456      549.127      1054.25
  457      549.557      1061.58
  458      549.987      1071.75
  459      550.416      1074.67
  460      550.846       1077.5
  461      551.275      1085.58
  462      551.704      1089.33
  463      552.133      1093.08
  464      552.562      1098.75
  465      552.991      1103.33
  466       553.42      1110.58
  467      553.849       1116.5
  468      554.278      1122.17
  469      554.706      1128.33
  470      555.135      1132.67
  471      555.563       1136.5
  472      555.991         1139
  473       556.42      1143.25
  474      556.848      1149.67
  475      557.276         1157
  476      557.704      1163.25
  477      558.132         1170
  478       558.56      1178.75
  479      558.987      1185.83
  480      559.415      1192.92
  481      559.843      1200.58
  482       560.27      1206.83
  483      560.697      1214.25
  484      561.125      1220.92
  485      561.552      1226.17
  486      561.979      1231.92
  487      562.406      1238.42
  488      562.833      1248.17
  489       563.26      1254.83
  490      563.686      1259.58
  491      564.113      1266.08
  492       564.54      1276.33
  493      564.966      1283.58
  494      565.392      1289.42
  495      565.819         1299
  496      566.245      1308.17
  497      566.671      1320.92
  498      567.097      1331.42
  499      567.523      1336.92
  500      567.949      1341.17
  501      568.374      1350.58
  502        568.8      1363.08
  503      569.226      1369.25
  504      569.651      1371.75
  505      570.077      1381.08
  506      570.502      1392.83
  507      570.927      1398.33
  508      571.352      1405.33
  509      571.777      1418.08
  510      572.202         1426
  511      572.627      1431.17
  512      573.052      1439.08
  513      573.476      1450.67
  514      573.901      1460.67
  515      574.325      1468.92
  516       574.75      1480.67
  517      575.174       1489.5
  518      575.598      1500.58
  519      576.022      1512.42
  520      576.446      1518.25
  521       576.87      1527.75
  522      577.294      1540.83
  523      577.718      1551.08
  524      578.142      1557.83
  525      578.565      1567.58
  526      578.989      1579.42
  527      579.412      1594.67
  528      579.835      1602.42
  529      580.259      1606.83
  530      580.682      1617.58
  531      581.105      1631.42
  532      581.528      1644.92
  533      581.951         1657
  534      582.373      1671.92
  535      582.796      1685.25
  536      583.219      1696.75
  537      583.641      1706.58
  538      584.063      1718.92
  539      584.486      1732.25
  540      584.908         1746
  541       585.33      1754.33
  542      585.752      1762.92
  543      586.174      1778.67
  544      586.596      1791.42
  545      587.018      1807.58
  546      587.439      1822.75
  547      587.861      1831.75
  548      588.282         1842
  549      588.704      1854.75
  550      589.125      1868.83
  551      589.546      1878.33
  552      589.967         1893
  553      590.388       1912.5
  554      590.809      1928.67
  555       591.23      1947.92
  556      591.651      1971.83
  557      592.071      1994.67
  558      592.492      2009.17
  559      592.912      2025.08
  560      593.333      2044.08
  561      593.753      2058.83
  562      594.173      2066.42
  563      594.593      2072.92
  564      595.013       2087.5
  565      595.433      2097.42
  566      595.853         2107
  567      596.273      2119.83
  568      596.693      2127.08
  569      597.112         2137
  570      597.532      2144.08
  571      597.951      2155.67
  572       598.37      2172.58
  573      598.789      2181.42
  574      599.208      2185.08
  575      599.627      2193.08
  576      600.046      2203.08
  577      600.465      2216.58
  578      600.884      2231.58
  579      601.303      2235.42
  580      601.721      2236.33
  581      602.139      2249.17
  582      602.558      2260.08
  583      602.976         2268
  584      603.394      2275.33
  585      603.812       2267.5
  586       604.23      2258.08
  587      604.648      2267.25
  588      605.066         2286
  589      605.484      2302.33
  590      605.901      2316.58
  591      606.319       2329.5
